m_wavelength	m_R	m_GDD
800.0	15.1244	0.0
801.0	17.2944	0.0
802.0	19.304	0.0
803.0	21.102	0.0
804.0	22.6498	0.0
805.0	23.9193	0.0
806.0	24.8907	0.0
807.0	25.5504	0.0
808.0	25.8896	0.0
809.0	25.9035	0.0
810.0	25.59	0.0
811.0	24.9503	0.0
812.0	23.9894	0.0
813.0	22.7169	0.0
814.0	21.149	0.0
815.0	19.3106	0.0
816.0	17.2383	0.0
817.0	14.9827	0.0
818.0	12.6118	0.0
819.0	10.2115	0.0
820.0	7.8857	0.0
821.0	5.7531	0.0
822.0	3.9392	0.0
823.0	2.5662	0.0
824.0	1.7393	0.0
825.0	1.5329	0.0
826.0	1.9796	0.0
827.0	3.0648	0.0
828.0	4.7288	0.0
829.0	6.8753	0.0
830.0	9.3842	0.0
831.0	12.1261	0.0
832.0	14.975	0.0
833.0	17.8176	0.0
834.0	20.5581	0.0
835.0	23.1204	0.0
836.0	25.4467	0.0
837.0	27.4953	0.0
838.0	29.2375	0.0
839.0	30.6538	0.0
840.0	31.7316	0.0
841.0	32.4625	0.0
842.0	32.8406	0.0
843.0	32.861	0.0
844.0	32.5193	0.0
845.0	31.8117	0.0
846.0	30.7352	0.0
847.0	29.289	0.0
848.0	27.4768	0.0
849.0	25.31	0.0
850.0	22.8116	0.0
851.0	20.0221	0.0
852.0	17.0054	0.0
853.0	13.8548	0.0
854.0	10.6982	0.0
855.0	7.6984	0.0
856.0	5.0469	0.0
857.0	2.9495	0.0
858.0	1.6011	0.0
859.0	1.1564	0.0
860.0	1.7003	0.0
861.0	3.2297	0.0
862.0	5.6525	0.0
863.0	8.8041	0.0
864.0	12.4765	0.0
865.0	16.4506	0.0
866.0	20.5225	0.0
867.0	24.5211	0.0
868.0	28.3146	0.0
869.0	31.8093	0.0
870.0	34.9448	0.0
871.0	37.6854	0.0
872.0	40.0136	0.0
873.0	41.9228	0.0
874.0	43.412	0.0
875.0	44.4821	0.0
876.0	45.1327	0.0
877.0	45.3597	0.0
878.0	45.1541	0.0
879.0	44.5008	0.0
880.0	43.3783	0.0
881.0	41.7594	0.0
882.0	39.6126	0.0
883.0	36.9058	0.0
884.0	33.6138	0.0
885.0	29.73	0.0
886.0	25.2867	0.0
887.0	20.3828	0.0
888.0	15.2206	0.0
889.0	10.1415	0.0
890.0	5.6417	0.0
891.0	2.3367	0.0
892.0	0.8464	0.0
893.0	1.614	0.0
894.0	4.7334	0.0
895.0	9.8907	0.0
896.0	16.466	0.0
897.0	23.7354	0.0
898.0	31.0561	0.0
899.0	37.9661	0.0
900.0	44.195	0.0
901.0	49.625	0.0
902.0	54.2384	0.0
903.0	58.0729	0.0
904.0	61.189	0.0
905.0	63.6505	0.0
906.0	65.512	0.0
907.0	66.8122	0.0
908.0	67.569	0.0
909.0	67.7745	0.0
910.0	67.3882	0.0
911.0	66.3268	0.0
912.0	64.4471	0.0
913.0	61.5193	0.0
914.0	57.1881	0.0
915.0	50.9266	0.0
916.0	42.0307	0.0
917.0	29.8678	0.0
918.0	15.0637	0.0
919.0	2.5933	0.0
920.0	3.1082	0.0
921.0	20.9216	0.0
922.0	44.7091	0.0
923.0	63.8162	0.0
924.0	76.4444	0.0
925.0	84.3415	0.0
926.0	89.2911	0.0
927.0	92.465	0.0
928.0	94.5587	0.0
929.0	95.9791	0.0
930.0	96.9682	0.0
931.0	97.6732	0.0
932.0	98.1862	0.0
933.0	98.5664	0.0
934.0	98.8529	0.0
935.0	99.072	0.0
936.0	99.2417	0.0
937.0	99.3747	0.0
938.0	99.4801	0.0
939.0	99.5644	0.0
940.0	99.6325	0.0
941.0	99.6879	0.0
942.0	99.7334	0.0
943.0	99.771	0.0
944.0	99.8022	0.0
945.0	99.8283	0.0
946.0	99.8503	0.0
947.0	99.8688	0.0
948.0	99.8846	0.0
949.0	99.8981	0.0
950.0	99.9097	0.0
951.0	99.9197	0.0
952.0	99.9283	0.0
953.0	99.9358	0.0
954.0	99.9423	0.0
955.0	99.948	0.0
956.0	99.953	0.0
957.0	99.9574	0.0
958.0	99.9613	0.0
959.0	99.9647	0.0
960.0	99.9678	0.0
961.0	99.9705	0.0
962.0	99.9729	0.0
963.0	99.9751	0.0
964.0	99.977	0.0
965.0	99.9788	0.0
966.0	99.9803	0.0
967.0	99.9818	0.0
968.0	99.983	0.0
969.0	99.9842	0.0
970.0	99.9853	0.0
971.0	99.9862	0.0
972.0	99.9871	0.0
973.0	99.9879	0.0
974.0	99.9886	0.0
975.0	99.9893	0.0
976.0	99.9899	0.0
977.0	99.9905	0.0
978.0	99.991	0.0
979.0	99.9915	0.0
980.0	99.9919	0.0
981.0	99.9923	0.0
982.0	99.9927	0.0
983.0	99.993	0.0
984.0	99.9933	0.0
985.0	99.9936	0.0
986.0	99.9939	0.0
987.0	99.9942	0.0
988.0	99.9944	0.0
989.0	99.9946	0.0
990.0	99.9948	0.0
991.0	99.995	0.0
992.0	99.9952	0.0
993.0	99.9954	0.0
994.0	99.9955	0.0
995.0	99.9957	0.0
996.0	99.9958	0.0
997.0	99.9959	0.0
998.0	99.9961	0.0
999.0	99.9962	0.0
1000.0	99.9963	0.0
1001.0	99.9964	0.0
1002.0	99.9965	0.0
1003.0	99.9966	0.0
1004.0	99.9966	0.0
1005.0	99.9967	0.0
1006.0	99.9968	0.0
1007.0	99.9968	0.0
1008.0	99.9969	0.0
1009.0	99.997	0.0
1010.0	99.997	0.0
1011.0	99.9971	0.0
1012.0	99.9971	0.0
1013.0	99.9971	0.0
1014.0	99.9972	0.0
1015.0	99.9972	0.0
1016.0	99.9973	0.0
1017.0	99.9973	0.0
1018.0	99.9973	0.0
1019.0	99.9973	0.0
1020.0	99.9974	0.0
1021.0	99.9974	0.0
1022.0	99.9974	0.0
1023.0	99.9974	0.0
1024.0	99.9974	0.0
1025.0	99.9974	0.0
1026.0	99.9974	0.0
1027.0	99.9975	0.0
1028.0	99.9975	0.0
1029.0	99.9975	0.0
1030.0	99.9975	0.0
1031.0	99.9975	0.0
1032.0	99.9974	0.0
1033.0	99.9974	0.0
1034.0	99.9974	0.0
1035.0	99.9974	0.0
1036.0	99.9974	0.0
1037.0	99.9974	0.0
1038.0	99.9974	0.0
1039.0	99.9974	0.0
1040.0	99.9973	0.0
1041.0	99.9973	0.0
1042.0	99.9973	0.0
1043.0	99.9973	0.0
1044.0	99.9972	0.0
1045.0	99.9972	0.0
1046.0	99.9972	0.0
1047.0	99.9971	0.0
1048.0	99.9971	0.0
1049.0	99.997	0.0
1050.0	99.997	0.0
1051.0	99.9969	0.0
1052.0	99.9969	0.0
1053.0	99.9968	0.0
1054.0	99.9968	0.0
1055.0	99.9967	0.0
1056.0	99.9966	0.0
1057.0	99.9966	0.0
1058.0	99.9965	0.0
1059.0	99.9964	0.0
1060.0	99.9963	0.0
1061.0	99.9962	0.0
1062.0	99.9961	0.0
1063.0	99.9961	0.0
1064.0	99.9959	0.0
1065.0	99.9958	0.0
1066.0	99.9957	0.0
1067.0	99.9956	0.0
1068.0	99.9955	0.0
1069.0	99.9953	0.0
1070.0	99.9952	0.0
1071.0	99.995	0.0
1072.0	99.9949	0.0
1073.0	99.9947	0.0
1074.0	99.9945	0.0
1075.0	99.9943	0.0
1076.0	99.9941	0.0
1077.0	99.9939	0.0
1078.0	99.9937	0.0
1079.0	99.9934	0.0
1080.0	99.9932	0.0
1081.0	99.9929	0.0
1082.0	99.9926	0.0
1083.0	99.9923	0.0
1084.0	99.992	0.0
1085.0	99.9916	0.0
1086.0	99.9912	0.0
1087.0	99.9908	0.0
1088.0	99.9904	0.0
1089.0	99.99	0.0
1090.0	99.9895	0.0
1091.0	99.989	0.0
1092.0	99.9884	0.0
1093.0	99.9878	0.0
1094.0	99.9872	0.0
1095.0	99.9866	0.0
1096.0	99.9858	0.0
1097.0	99.9851	0.0
1098.0	99.9842	0.0
1099.0	99.9834	0.0
1100.0	99.9824	0.0
1101.0	99.9814	0.0
1102.0	99.9803	0.0
1103.0	99.9791	0.0
1104.0	99.9778	0.0
1105.0	99.9764	0.0
1106.0	99.9749	0.0
1107.0	99.9733	0.0
1108.0	99.9715	0.0
1109.0	99.9696	0.0
1110.0	99.9675	0.0
1111.0	99.9653	0.0
1112.0	99.9629	0.0
1113.0	99.9602	0.0
1114.0	99.9573	0.0
1115.0	99.9541	0.0
1116.0	99.9506	0.0
1117.0	99.9468	0.0
1118.0	99.9427	0.0
1119.0	99.9381	0.0
1120.0	99.9331	0.0
1121.0	99.9275	0.0
1122.0	99.9214	0.0
1123.0	99.9146	0.0
1124.0	99.9072	0.0
1125.0	99.8989	0.0
1126.0	99.8897	0.0
1127.0	99.8795	0.0
1128.0	99.8681	0.0
1129.0	99.8554	0.0
1130.0	99.8411	0.0
1131.0	99.8251	0.0
1132.0	99.8072	0.0
1133.0	99.787	0.0
1134.0	99.7642	0.0
1135.0	99.7384	0.0
1136.0	99.709	0.0
1137.0	99.6757	0.0
1138.0	99.6376	0.0
1139.0	99.594	0.0
1140.0	99.544	0.0
1141.0	99.4863	0.0
1142.0	99.4196	0.0
1143.0	99.3421	0.0
1144.0	99.2519	0.0
1145.0	99.1463	0.0
1146.0	99.0221	0.0
1147.0	98.8754	0.0
1148.0	98.7012	0.0
1149.0	98.4932	0.0
1150.0	98.2434	0.0
1151.0	97.9416	0.0
1152.0	97.5742	0.0
1153.0	97.1239	0.0
1154.0	96.5677	0.0
1155.0	95.8746	0.0
1156.0	95.0034	0.0
1157.0	93.8974	0.0
1158.0	92.4793	0.0
1159.0	90.6415	0.0
1160.0	88.2346	0.0
1161.0	85.0509	0.0
1162.0	80.8051	0.0
1163.0	75.1187	0.0
1164.0	67.5288	0.0
1165.0	57.5735	0.0
1166.0	45.0553	0.0
1167.0	30.579	0.0
1168.0	16.188	0.0
1169.0	5.2432	0.0
1170.0	0.6817	0.0
1171.0	2.898	0.0
1172.0	9.7888	0.0
1173.0	18.6366	0.0
1174.0	27.5089	0.0
1175.0	35.4608	0.0
1176.0	42.2009	0.0
1177.0	47.7558	0.0
1178.0	52.2702	0.0
1179.0	55.912	0.0
1180.0	58.8348	0.0
1181.0	61.167	0.0
1182.0	63.0115	0.0
1183.0	64.449	0.0
1184.0	65.5422	0.0
1185.0	66.3392	0.0
1186.0	66.8767	0.0
1187.0	67.1825	0.0
1188.0	67.2769	0.0
1189.0	67.1746	0.0
1190.0	66.8856	0.0
1191.0	66.4158	0.0
1192.0	65.7678	0.0
1193.0	64.9415	0.0
1194.0	63.9343	0.0
1195.0	62.7415	0.0
1196.0	61.3566	0.0
1197.0	59.7719	0.0
1198.0	57.9785	0.0
1199.0	55.9674	0.0
1200.0	53.7297	0.0
1201.0	51.2577	0.0
1202.0	48.5462	0.0
1203.0	45.5936	0.0
1204.0	42.404	0.0
1205.0	38.989	0.0
1206.0	35.3703	0.0
1207.0	31.5817	0.0
1208.0	27.6714	0.0
1209.0	23.7035	0.0
1210.0	19.7581	0.0
1211.0	15.9298	0.0
1212.0	12.3243	0.0
1213.0	9.0518	0.0
1214.0	6.2194	0.0
1215.0	3.9214	0.0
1216.0	2.2306	0.0
1217.0	1.1911	0.0
1218.0	0.8139	0.0
1219.0	1.0774	0.0
1220.0	1.9309	0.0
1221.0	3.3012	0.0
1222.0	5.1009	0.0
1223.0	7.2366	0.0
1224.0	9.6158	0.0
1225.0	12.1528	0.0
1226.0	14.7719	0.0
1227.0	17.4089	0.0
1228.0	20.0121	0.0
1229.0	22.5408	0.0
1230.0	24.965	0.0
1231.0	27.2631	0.0
1232.0	29.4206	0.0
1233.0	31.429	0.0
1234.0	33.2838	0.0
1235.0	34.984	0.0
1236.0	36.5309	0.0
1237.0	37.9275	0.0
1238.0	39.1778	0.0
1239.0	40.2865	0.0
1240.0	41.2583	0.0
1241.0	42.0984	0.0
1242.0	42.8116	0.0
1243.0	43.4024	0.0
1244.0	43.8753	0.0
1245.0	44.2342	0.0
1246.0	44.4825	0.0
1247.0	44.6235	0.0
1248.0	44.6599	0.0
1249.0	44.5941	0.0
1250.0	44.4282	0.0
1251.0	44.1638	0.0
1252.0	43.8023	0.0
1253.0	43.3451	0.0
1254.0	42.793	0.0
1255.0	42.1469	0.0
1256.0	41.4077	0.0
1257.0	40.576	0.0
1258.0	39.6528	0.0
1259.0	38.639	0.0
1260.0	37.5359	0.0
1261.0	36.3452	0.0
1262.0	35.0688	0.0
1263.0	33.7094	0.0
1264.0	32.2704	0.0
1265.0	30.7561	0.0
1266.0	29.1715	0.0
1267.0	27.5231	0.0
1268.0	25.8183	0.0
1269.0	24.0662	0.0
1270.0	22.2771	0.0
1271.0	20.4628	0.0
1272.0	18.6367	0.0
1273.0	16.8136	0.0
1274.0	15.0098	0.0
1275.0	13.2425	0.0
1276.0	11.53	0.0
1277.0	9.8911	0.0
1278.0	8.3446	0.0
1279.0	6.9093	0.0
1280.0	5.6029	0.0
1281.0	4.4417	0.0
1282.0	3.4401	0.0
1283.0	2.6101	0.0
1284.0	1.961	0.0
1285.0	1.4987	0.0
1286.0	1.226	0.0
1287.0	1.1423	0.0
1288.0	1.2435	0.0
1289.0	1.5227	0.0
1290.0	1.97	0.0
1291.0	2.5734	0.0
1292.0	3.3189	0.0
1293.0	4.1911	0.0
1294.0	5.1738	0.0
1295.0	6.2503	0.0
1296.0	7.404	0.0
1297.0	8.6186	0.0
1298.0	9.8786	0.0
1299.0	11.1694	0.0
1300.0	12.4773	0.0
